H [A/m] - Hystereschleife	
	B [T] - Hystereschleife
	H [A/m] - Neukurve
	B [T] - Neukurve
	
-46,9635	-0,0971573
-46,9168	-0,0971512
-46,6361	-0,0971439
-46,4958	-0,0971357
-46,3087	-0,0971263
-46,2619	-0,0971156
-46,0748	-0,0971041
-46,0748	-0,0970913
-45,8409	-0,0970772
-45,607	-0,0970624
-45,5135	-0,0970469
-45,4199	-0,0970304
-45,3264	-0,0970123
-45,186	-0,0969931
-45,0925	-0,0969734
-44,9521	-0,0969527
-44,7183	-0,0969308
-44,6247	-0,0969078
-44,5312	-0,0968837
-44,3908	-0,0968583
-44,0634	-0,0968317
-43,9698	-0,0968042
-43,9698	-0,0967758
-43,6424	-0,0967458
-43,5489	-0,0967147
-43,4085	-0,0966829
-43,315	-0,0966501
-43,1279	-0,0966156
-43,0811	-0,0965801
-42,894	-0,0965442
-42,8004	-0,0965072
-42,5198	-0,0964685
-42,3794	-0,0964288
-42,2859	-0,0963883
-41,9585	-0,0963467
-41,8649	-0,0963039
-41,7714	-0,09626
-41,4907	-0,0962151
-41,3971	-0,0961688
-41,2568	-0,0961213
-41,1633	-0,0960732
-40,8826	-0,0960244
-40,789	-0,0959741
-40,6955	-0,0959228
-40,4616	-0,0958706
-40,2277	-0,0958175
-40,181	-0,0957633
-40,0406	-0,0957078
-39,8067	-0,0956514
-39,6196	-0,095594
-39,5261	-0,095535
-39,2922	-0,0954749
-39,1986	-0,0954142
-39,0115	-0,0953522
-38,918	-0,0952889
-38,6373	-0,0952247
-38,5438	-0,0951597
-38,4034	-0,0950937
-38,1696	-0,0950264
-38,0292	-0,0949581
-37,9357	-0,0948891
-37,7486	-0,0948189
-37,5147	-0,0947471
-37,4211	-0,0946746
-37,234	-0,0946014
-37,0469	-0,0945273
-36,8598	-0,0944518
-36,7195	-0,0943751
-36,5792	-0,0942979
-36,2985	-0,0942198
-36,205	-0,0941403
-36,0646	-0,0940598
-35,8307	-0,0939784
-35,6436	-0,0938961
-35,5501	-0,0938124
-35,3162	-0,0937275
-34,942	-0,0936421
-34,8952	-0,0935556
-34,7549	-0,0934676
-34,4742	-0,0933786
-34,3807	-0,0932889
-34,1936	-0,0931977
-33,9597	-0,0931052
-33,679	-0,093012
-33,5855	-0,0929183
-33,3984	-0,0928234
-33,1645	-0,092727
-33,1177	-0,0926297
-32,9306	-0,092532
-32,6499	-0,0924332
-32,4628	-0,0923327
-32,3225	-0,0922313
-32,229	-0,0921291
-31,9015	-0,0920255
-31,7612	-0,0919207
-31,6209	-0,091815
-31,3402	-0,0917088
-31,1531	-0,0916014
-30,966	-0,0914926
-30,7789	-0,091383
-30,4515	-0,0912725
-30,3111	-0,0911605
-30,124	-0,0910472
-30,0305	-0,0909335
-29,6563	-0,0908192
-29,5627	-0,0907039
-29,3756	-0,0905871
-29,1417	-0,0904694
-28,9546	-0,0903511
-28,7207	-0,0902316
-28,5804	-0,0901107
-28,3465	-0,0899889
-28,1126	-0,0898664
-28,0659	-0,0897427
-27,832	-0,0896177
-27,5513	-0,0894918
-27,411	-0,0893649
-27,2707	-0,0892365
-26,99	-0,0891071
-26,6626	-0,088977
-26,6158	-0,0888463
-26,2884	-0,0887147
-26,1012	-0,0885817
-25,9141	-0,0884479
-25,727	-0,0883135
-25,4464	-0,0881784
-25,2593	-0,0880419
-25,1657	-0,0879041
-24,8851	-0,0877658
-24,6044	-0,0876267
-24,5576	-0,0874862
-24,277	-0,0873444
-24,0899	-0,0872018
-23,856	-0,0870587
-23,7157	-0,0869148
-23,3882	-0,0867694
-23,2479	-0,086623
-23,0608	-0,0864761
-22,8269	-0,0863284
-22,5462	-0,0861794
-22,4995	-0,0860293
-22,2656	-0,0858786
-21,9381	-0,085727
-21,7043	-0,0855741
-21,6107	-0,08542
-21,2833	-0,0852652
-21,0026	-0,0851095
-20,8155	-0,0849526
-20,722	-0,0847946
-20,4881	-0,0846359
-20,2542	-0,0844767
-20,1139	-0,0843164
-19,8332	-0,0841549
-19,5993	-0,0839925
-19,5525	-0,0838294
-19,1783	-0,0836656
-19,038	-0,0835005
-18,8041	-0,0833342
-18,4299	-0,0831673
-18,3364	-0,0829998
-18,1025	-0,0828315
-17,8686	-0,0826619
-17,6347	-0,0824913
-17,4476	-0,0823199
-17,2605	-0,0821472
-17,0266	-0,0819731
-16,7927	-0,0817982
-16,6056	-0,0816228
-16,4185	-0,0814468
-16,2314	-0,0812697
-15,9975	-0,0810912
-15,7169	-0,0809121
-15,483	-0,0807326
-15,2959	-0,0805524
-14,9217	-0,080371
-14,7814	-0,0801885
-14,641	-0,0800053
-14,4071	-0,0798215
-14,1733	-0,0796369
-14,0329	-0,079451
-13,7523	-0,0792641
-13,4716	-0,0790766
-13,3781	-0,0788886
-13,191	-0,0786994
-12,9103	-0,0785088
-12,6296	-0,0783174
-12,4893	-0,0781254
-12,3022	-0,0779327
-11,9748	-0,0777389
-11,7409	-0,0775439
-11,6941	-0,0773484
-11,3667	-0,0771523
-11,0392	-0,0769556
-10,9457	-0,0767576
-10,8054	-0,0765585
-10,5247	-0,0763589
-10,244	-0,0761589
-10,1505	-0,0759581
-9,86983	-0,0757562
-9,58917	-0,0755532
-9,44884	-0,0753493
-9,26173	-0,075145
-8,84075	-0,0749397
-8,74719	-0,0747332
-8,51331	-0,0745256
-8,27943	-0,0743175
-8,04555	-0,074109
-7,90522	-0,0738995
-7,67133	-0,0736887
-7,39068	-0,0734769
-7,20357	-0,0732647
-6,96969	-0,0730519
-6,73581	-0,0728381
-6,50192	-0,0726231
-6,31482	-0,0724072
-6,12771	-0,0721908
-5,7535	-0,0719736
-5,65995	-0,0717552
-5,47284	-0,0715357
-5,19218	-0,0713157
-4,91153	-0,0710952
-4,7712	-0,0708744
-4,63087	-0,0706529
-4,25666	-0,0704301
-4,06955	-0,0702062
-3,92922	-0,0699817
-3,60179	-0,069757
-3,41468	-0,0695314
-3,32113	-0,0693047
-2,99369	-0,0690771
-2,75981	-0,0688488
-2,71303	-0,0686201
-2,3856	-0,0683909
-2,19849	-0,068161
-1,96461	-0,0679301
-1,87106	-0,0676982
-1,5904	-0,0674656
-1,21619	-0,0672325
-1,12263	-0,0669987
-0,935529	-0,0667638
-0,561317	-0,0665279
-0,467764	-0,0662913
-0,327435	-0,0660542
-0,0467764	-0,0658168
0,233882	-0,0655785
0,327435	-0,0653392
0,561317	-0,0650994
0,841976	-0,0648589
1,02908	-0,0646178
1,16941	-0,0643762
1,40329	-0,0641336
1,73073	-0,0638901
1,7775	-0,0636458
2,01139	-0,0634008
2,24527	-0,0631554
2,61948	-0,0629094
2,52593	-0,0626623
2,85336	-0,0624143
3,13402	-0,0621656
3,32113	-0,0619166
3,50823	-0,0616673
3,88244	-0,0614174
3,92922	-0,0611665
4,1631	-0,0609145
4,44376	-0,0606617
4,67764	-0,0604085
4,86475	-0,0601548
5,00508	-0,0599002
5,28574	-0,0596448
5,51962	-0,0593888
5,70672	-0,0591321
5,84705	-0,0588749
6,22127	-0,0586174
6,36159	-0,0583592
6,50192	-0,0581001
6,82936	-0,0578401
7,01646	-0,0575793
7,20357	-0,057318
7,39068	-0,0570562
7,71811	-0,0567941
7,85844	-0,0565314
7,99877	-0,0562676
8,27943	-0,0560032
8,51331	-0,0557382
8,60686	-0,0554727
8,88752	-0,0552069
9,1214	-0,0549407
9,30851	-0,0546736
9,44884	-0,0544055
9,68272	-0,0541369
9,96338	-0,0538675
10,1037	-0,0535977
10,2908	-0,0533274
10,6182	-0,0530564
10,8521	-0,0527843
10,8989	-0,0525115
11,2731	-0,0522382
11,4134	-0,0519645
11,5538	-0,0516905
11,8344	-0,051416
12,0215	-0,0511406
12,2554	-0,0508645
12,4425	-0,0505877
12,6764	-0,0503104
12,8635	-0,0500327
13,0506	-0,0497546
13,2377	-0,0494763
13,5184	-0,0491973
13,7055	-0,0489174
13,8926	-0,0486369
14,0797	-0,0483558
14,3136	-0,0480741
14,4071	-0,0477922
14,6878	-0,0475099
14,9217	-0,047227
15,2023	-0,0469434
15,2959	-0,046659
15,4362	-0,0463738
15,7637	-0,0460882
15,8572	-0,0458022
16,1379	-0,045516
16,3718	-0,0452296
16,5121	-0,0449426
16,746	-0,0446549
16,8863	-0,0443665
17,0734	-0,0440776
17,2137	-0,0437881
17,4476	-0,0434982
17,6347	-0,0432081
17,8686	-0,0429176
18,1025	-0,0426264
18,3364	-0,0423347
18,4299	-0,0420423
18,617	-0,041749
18,8509	-0,0414552
19,0848	-0,0411613
19,1783	-0,040867
19,3654	-0,0405725
19,6929	-0,0402777
19,8332	-0,0399822
19,9735	-0,0396858
20,1606	-0,0393886
20,4881	-0,0390909
20,6284	-0,0387928
20,722	-0,0384946
21,0962	-0,0381963
21,2833	-0,0378975
21,4236	-0,0375984
21,5639	-0,0372991
21,8446	-0,0369992
21,9849	-0,0366986
22,1253	-0,0363973
22,4059	-0,0360955
22,593	-0,0357933
22,6866	-0,035491
22,8269	-0,0351886
23,0608	-0,0348859
23,2011	-0,0345829
23,3882	-0,0342797
23,7157	-0,033976
23,856	-0,0336714
24,0431	-0,0333661
24,2302	-0,0330606
24,5108	-0,0327546
24,6512	-0,0324482
24,7915	-0,0321416
24,9786	-0,031835
25,1657	-0,0315282
25,3528	-0,031221
25,4932	-0,0309133
25,7738	-0,0306051
25,9141	-0,0302964
26,0077	-0,0299871
26,1948	-0,0296775
26,4755	-0,0293674
26,4755	-0,0290569
26,7093	-0,0287462
26,8964	-0,0284355
27,0368	-0,0281246
27,3174	-0,0278133
27,5981	-0,0275016
27,832	-0,0271896
27,8788	-0,0268771
28,0191	-0,0265643
28,2997	-0,026251
28,4868	-0,0259373
28,4868	-0,0256231
28,8143	-0,0253088
28,9546	-0,0249943
29,0482	-0,0246797
29,2353	-0,0243649
29,5159	-0,0240501
29,4692	-0,0237352
29,7498	-0,0234202
29,9369	-0,0231049
30,1708	-0,0227894
30,2644	-0,0224738
30,3579	-0,0221579
30,7321	-0,0218415
30,8724	-0,0215247
30,9192	-0,0212076
31,2467	-0,0208901
31,4338	-0,0205718
31,4338	-0,0202534
31,6209	-0,0199348
31,9015	-0,0196161
31,9483	-0,0192972
32,0886	-0,0189782
32,3693	-0,0186591
32,5096	-0,0183399
32,6032	-0,0180205
32,7435	-0,0177011
33,0709	-0,0173813
33,1645	-0,0170614
33,2113	-0,0167416
33,4919	-0,0164214
33,5855	-0,0161007
33,7258	-0,0157795
33,8194	-0,0154584
34,1	-0,0151368
34,1936	-0,014815
34,3807	-0,0144932
34,6613	-0,0141713
34,7549	-0,0138491
34,942	-0,0135265
34,9888	-0,0132039
35,2227	-0,0128812
35,363	-0,0125583
35,4565	-0,0122354
35,5969	-0,0119124
35,7372	-0,0115895
35,8775	-0,0112664
36,0179	-0,0109433
36,2517	-0,0106203
36,3921	-0,010297
36,4856	-0,00997384
36,6727	-0,00965063
36,9066	-0,00932704
36,9066	-0,00900332
37,0469	-0,0086796
37,234	-0,00835562
37,3276	-0,00803139
37,5615	-0,0077069
37,7018	-0,00738215
37,8889	-0,00705754
37,9357	-0,00673292
38,076	-0,00640766
38,3099	-0,00608227
38,4502	-0,00575714
38,5906	-0,00543176
38,6841	-0,00510624
38,918	-0,00478073
38,9648	-0,00445508
39,1519	-0,00412944
39,2922	-0,0038038
39,4325	-0,00347803
39,6196	-0,00315213
39,8067	-0,0028261
39,9003	-0,00250007
39,9471	-0,00217404
40,0874	-0,00184776
40,3213	-0,0015216
40,4616	-0,00119558
40,5084	-0,000869421
40,6955	-0,000543009
40,8826	-0,000216468
40,9762	0,000109944
41,1633	0,000436228
41,3971	0,000762384
41,5375	0,00108867
41,5375	0,00141495
41,8181	0,00174124
41,9585	0,00206752
41,9585	0,00239368
42,0988	0,00271983
42,3327	0,00304599
42,3327	0,00337214
42,4262	0,00369817
42,7069	0,00402394
42,8472	0,00434971
42,9408	0,00467561
43,1279	0,00500139
43,2214	0,0053269
43,2682	0,00565242
43,4085	0,00597793
43,6424	0,00630319
43,736	0,00662845
43,9231	0,00695383
43,9698	0,00727896
44,157	0,00760371
44,2505	0,00792845
44,3908	0,00825307
44,5312	0,0085773
44,5779	0,00890154
44,7183	0,00922577
44,8586	0,00954987
45,0457	0,00987385
45,1393	0,0101977
45,1393	0,0105213
45,4199	0,0108448
45,5135	0,0111682
45,5602	0,0114916
45,7006	0,0118148
45,8877	0,0121378
45,9812	0,0124609
46,028	0,012784
46,1683	0,0131071
46,3087	0,01343
46,449	0,0137528
46,5893	0,0140757
46,6829	0,0143985
46,8232	0,0147212
46,87	0,0150436
47,0103	0,0153658
47,1974	0,015688
47,1506	0,01601
47,3377	0,0163317
47,4781	0,0166532
47,5249	0,0169747
47,6652	0,0172959
47,8055	0,0176168
47,9926	0,0179371
48,0394	0,0182571
48,0862	0,0185768
48,2265	0,0188963
48,2733	0,0192157
48,4136	0,0195348
48,5539	0,0198539
48,6943	0,0201729
48,6943	0,0204916
48,7878	0,0208103
48,9749	0,0211289
49,0217	0,0214471
49,162	0,0217651
49,3024	0,0220828
49,3959	0,0224001
49,4427	0,0227171
49,5362	0,0230339
49,6766	0,0233506
49,6766	0,0236667
49,8169	0,0239824
49,9105	0,0242978
50,0508	0,0246128
50,004	0,0249277
50,1911	0,0252425
50,3314	0,0255573
50,3314	0,0258719
50,5653	0,0261864
50,7057	0,0265007
50,846	0,0268151
50,846	0,0271293
50,8928	0,027443
51,1266	0,0277564
51,1734	0,0280693
51,1734	0,0283815
51,3605	0,0286932
51,5944	0,0290045
51,5009	0,0293155
51,5476	0,0296264
51,8283	0,029937
51,8283	0,0302475
51,8751	0,0305578
51,9686	0,0308677
52,0622	0,0311773
52,0622	0,0314865
52,3428	0,0317951
52,3896	0,0321031
52,4364	0,0324105
52,5299	0,0327176
52,6235	0,0330243
52,717	0,0333309
52,717	0,0336372
52,8106	0,0339433
52,9977	0,0342494
52,9041	0,0345549
53,0912	0,0348597
53,2784	0,035164
53,2784	0,0354677
53,2784	0,035771
53,4655	0,036074
53,559	0,0363767
53,5122	0,0366791
53,559	0,0369813
53,7461	0,0372831
53,7929	0,0375844
53,8397	0,0378851
53,98	0,0381853
54,1203	0,0384847
54,1203	0,0387837
54,1203	0,0390823
54,3074	0,0393808
54,2607	0,0396791
54,3074	0,0399772
54,401	0,040275
54,6349	0,0405723
54,5881	0,040869
54,5413	0,0411649
54,822	0,04146
54,8688	0,0417548
54,9155	0,0420492
54,9623	0,0423433
55,0559	0,0426372
55,1026	0,0429308
55,1026	0,0432237
55,3833	0,0435158
55,4301	0,0438072
55,3365	0,0440982
55,5236	0,0443887
55,7107	0,0446789
55,7107	0,0449686
55,6172	0,0452577
55,8043	0,045546
55,8511	0,0458335
55,8511	0,0461204
55,8978	0,0464069
56,1785	0,046693
56,0849	0,0469789
56,0382	0,0472644
56,272	0,0475492
56,3188	0,0478336
56,272	0,0481172
56,4124	0,0484
56,4592	0,0486824
56,5059	0,0489646
56,4592	0,0492464
56,6463	0,0495277
56,5995	0,0498085
56,693	0,0500885
56,7866	0,0503676
56,8801	0,050646
56,9737	0,0509241
56,9269	0,0512019
57,0205	0,0514794
57,114	0,0517562
57,0672	0,052032
57,2076	0,052307
57,3011	0,0525814
57,2076	0,0528554
57,3011	0,053129
57,3479	0,053402
57,3479	0,0536749
57,3479	0,053947
57,4882	0,0542181
57,6753	0,0544883
57,6286	0,0547581
57,7689	0,0550276
57,8157	0,0552965
57,8157	0,0555647
57,8624	0,055832
57,9092	0,0560983
57,9092	0,0563641
58,0028	0,0566296
58,0028	0,0568946
58,0496	0,057159
58,0028	0,0574225
58,0963	0,0576851
58,1431	0,0579469
58,0963	0,0582083
58,1899	0,0584696
58,2367	0,0587305
58,377	0,0589903
58,3302	0,0592491
58,3302	0,0595069
58,4705	0,0597642
58,5173	0,0600214
58,4705	0,0602782
58,4705	0,0605342
58,5641	0,0607892
58,6576	0,0610432
58,7044	0,0612966
58,6576	0,0615497
58,7512	0,061802
58,7044	0,0620533
58,798	0,0623035
58,7512	0,062553
58,8447	0,0628021
58,8447	0,0630508
58,8447	0,0632992
58,8915	0,0635471
58,8915	0,063794
58,9383	0,0640398
59,0319	0,0642849
59,0786	0,0645295
59,0319	0,0647731
59,0786	0,0650157
59,1254	0,0652575
59,1254	0,0654985
59,219	0,0657391
59,219	0,0659793
59,2657	0,0662184
59,219	0,0664563
59,2657	0,0666935
59,4061	0,0669303
59,3125	0,0671667
59,3125	0,0674022
59,3593	0,0676364
59,3593	0,0678697
59,3125	0,0681026
59,4061	0,0683346
59,4061	0,0685658
59,4528	0,0687959
59,3593	0,069025
59,4528	0,0692536
59,4996	0,0694819
59,4061	0,0697097
59,4996	0,0699366
59,5464	0,0701624
59,5464	0,0703873
59,4528	0,0706118
59,5932	0,0708357
59,5464	0,0710588
59,5464	0,0712807
59,6399	0,0715017
59,6867	0,0717224
59,6399	0,0719426
59,6399	0,0721621
59,7335	0,0723804
59,5932	0,0725977
59,6399	0,0728143
59,7335	0,0730299
59,6867	0,0732447
59,6867	0,0734584
59,6399	0,0736711
59,7803	0,0738832
59,6867	0,0740949
59,5932	0,0743058
59,8271	0,0745155
59,7803	0,0747242
59,7335	0,0749324
59,6867	0,07514
59,8271	0,0753467
59,7803	0,0755523
59,7335	0,0757569
59,7803	0,0759609
59,7803	0,0761642
59,7335	0,0763664
59,7335	0,0765673
59,8271	0,0767673
59,7335	0,0769669
59,5932	0,0771657
59,7335	0,0773634
59,7335	0,0775602
59,6399	0,0777562
59,5932	0,0779516
59,7335	0,0781462
59,6399	0,0783395
59,6399	0,0785318
59,7335	0,0787235
59,6867	0,0789143
59,6399	0,079104
59,5932	0,0792928
59,7803	0,0794809
59,6399	0,0796682
59,5932	0,0798549
59,5932	0,0800404
59,6399	0,0802246
59,6399	0,0804082
59,5464	0,080591
59,6399	0,0807725
59,5932	0,0809529
59,5932	0,0811326
59,4996	0,081312
59,6399	0,0814906
59,5464	0,0816678
59,4528	0,0818436
59,4996	0,0820189
59,4528	0,0821938
59,4996	0,0823679
59,4061	0,0825407
59,4996	0,0827122
59,5464	0,082883
59,4061	0,0830528
59,4061	0,0832214
59,4061	0,083389
59,4061	0,083556
59,2657	0,0837225
59,3593	0,0838879
59,4061	0,0840519
59,219	0,084215
59,219	0,0843774
59,2657	0,0845389
59,1254	0,0846993
59,1722	0,0848586
59,219	0,0850174
59,0786	0,0851753
58,9851	0,085332
59,0786	0,0854873
58,9851	0,0856421
58,9851	0,0857962
58,9851	0,0859491
58,9383	0,0861008
58,8915	0,0862514
58,8447	0,0864014
58,9383	0,0865504
58,9383	0,086698
58,798	0,0868448
58,798	0,0869908
58,7512	0,0871361
58,7512	0,0872801
58,5641	0,0874229
58,6576	0,0875649
58,6109	0,0877057
58,5641	0,0878452
58,5173	0,0879839
58,4705	0,0881221
58,5173	0,0882592
58,3302	0,0883949
58,3302	0,0885295
58,4238	0,0886636
58,2367	0,0887968
58,2367	0,0889287
58,1899	0,0890594
58,0963	0,0891895
58,0963	0,0893192
58,0963	0,0894475
58,0496	0,0895743
57,956	0,0897002
57,9092	0,0898254
57,9092	0,0899492
57,8157	0,0900717
57,8157	0,0901936
57,7689	0,0903147
57,6753	0,0904343
57,6286	0,0905528
57,5818	0,0906706
57,4415	0,0907872
57,4415	0,0909024
57,3479	0,0910165
57,3479	0,09113
57,3011	0,091243
57,2544	0,0913546
57,114	0,0914649
57,2076	0,0915742
57,0672	0,0916828
56,9737	0,0917904
56,8801	0,0918966
56,9737	0,0920021
56,7398	0,092107
56,693	0,0922103
56,5995	0,0923122
56,5995	0,0924134
56,5527	0,0925135
56,4592	0,0926122
56,4592	0,0927099
56,3188	0,0928069
56,3188	0,0929028
56,3656	0,0929973
56,3188	0,0930907
56,0849	0,0931835
56,1317	0,0932754
56,0849	0,093366
55,8978	0,0934553
55,8043	0,0935437
55,8043	0,0936309
55,7575	0,0937167
55,7107	0,0938017
55,5704	0,0938861
55,5704	0,0939693
55,3833	0,0940511
55,243	0,0941321
55,2897	0,0942122
55,1026	0,0942911
54,9623	0,0943688
54,9623	0,0944457
54,9155	0,0945218
54,7752	0,0945968
54,6816	0,0946705
54,6349	0,0947433
54,6349	0,0948153
54,4945	0,094886
54,401	0,0949552
54,3542	0,0950236
54,2139	0,0950912
54,1671	0,0951576
54,1203	0,0952228
53,98	0,0952873
53,8864	0,0953509
53,8397	0,0954131
53,6993	0,0954742
53,559	0,0955344
53,6058	0,0955935
53,4655	0,0956513
53,3719	0,0957079
53,2316	0,0957634
53,2316	0,0958178
53,2316	0,095871
52,9509	0,0959233
52,9041	0,095975
52,8574	0,0960255
52,717	0,0960746
52,5767	0,0961226
52,5767	0,0961698
52,4832	0,0962158
52,2493	0,0962605
52,2493	0,0963042
52,1557	0,096347
52,0154	0,0963884
51,9218	0,0964287
51,8283	0,0964683
51,8283	0,0965067
51,5476	0,0965436
51,5009	0,0965796
51,3605	0,0966151
51,267	0,0966496
51,1734	0,0966827
51,0799	0,0967146
50,9863	0,0967457
50,7992	0,0967757
50,6589	0,0968043
50,7524	0,0968318
50,5185	0,0968585
50,425	0,0968839
50,3314	0,0969079
50,2847	0,0969311
50,0976	0,0969533
49,9572	0,0969739
49,8637	0,0969934
49,7233	0,0970125
49,5362	0,0970308
49,5362	0,0970477
49,3491	0,0970635
49,2088	0,0970784
49,0685	0,0970925
48,9749	0,0971055
48,9281	0,0971171
48,7878	0,0971279
48,6475	0,0971375
48,5072	0,0971457
48,4136	0,0971529
48,3201	0,0971596
48,2733	0,0971652
48,0862	0,0971693
47,8991	0,0971725
47,9458	0,0971752
47,712	0,0971767
47,5249	0,0971768
47,4313	0,097176
47,3845	0,0971747
47,2442	0,0971724
46,9635	0,0971684
46,9635	0,0971633
46,7764	0,0971573
46,5893	0,0971499
46,5425	0,097141
46,4022	0,0971315
46,1683	0,0971211
46,1216	0,0971093
45,9812	0,0970963
45,9345	0,0970827
45,607	0,0970682
45,5602	0,0970522
45,4667	0,097035
45,2796	0,0970174
45,2328	0,0969992
45,0457	0,0969794
44,9989	0,0969583
44,7183	0,0969364
44,5312	0,0969139
44,5312	0,0968897
44,2037	0,0968643
44,157	0,0968383
44,0166	0,096811
43,8295	0,096782
43,6892	0,0967521
43,5489	0,0967213
43,5489	0,0966891
43,1746	0,0966557
43,0343	0,0966218
43,0343	0,0965872
42,8004	0,0965516
42,473	0,0965144
42,5666	0,096476
42,3327	0,0964367
42,1456	0,0963959
42,0052	0,0963539
41,9117	0,0963112
41,7246	0,0962674
41,4907	0,0962221
41,4439	0,0961759
41,1633	0,0961288
41,0229	0,0960804
40,9294	0,0960306
40,6487	0,0959801
40,4616	0,0959288
40,3213	0,095876
40,2277	0,095822
39,9938	0,0957675
39,9471	0,0957123
39,76	0,0956556
39,6664	0,0955976
39,4325	0,0955389
39,2922	0,0954794
39,1051	0,0954184
39,0115	0,0953562
38,7777	0,0952931
38,5906	0,095229
38,4502	0,0951636
38,3567	0,0950971
38,1228	0,0950299
37,8889	0,0949615
37,7486	0,0948917
37,6083	0,0948211
37,3276	0,0947498
37,234	0,0946776
37,0469	0,094604
36,8598	0,0945292
36,6727	0,0944538
36,5792	0,0943774
36,3453	0,0942995
36,205	0,0942207
35,9711	0,0941413
35,9243	0,0940611
35,6904	0,0939794
35,5033	0,0938966
35,3162	0,093813
35,2227	0,0937285
35,0355	0,0936427
34,8484	0,0935556
34,7549	0,0934678
34,4742	0,0933788
34,3339	0,0932884
34,1936	0,0931971
33,8661	0,0931054
33,7726	0,0930128
33,5855	0,0929187
33,3048	0,0928234
33,0709	0,0927271
32,9774	0,0926295
32,8838	0,0925308
32,5564	0,0924312
32,4628	0,0923312
32,2757	0,0922302
31,9951	0,0921276
31,808	0,092024
31,7144	0,0919196
31,6209	0,0918141
31,387	0,0917074
31,0595	0,0915998
30,966	0,0914916
30,8257	0,0913822
30,4515	0,0912711
30,2644	0,0911592
30,1708	0,0910466
29,9837	0,0909329
29,6563	0,0908178
29,5627	0,0907019
29,3756	0,0905855
29,1417	0,0904683
29,0014	0,0903498
28,8143	0,0902301
28,5804	0,0901097
28,3933	0,0899883
28,253	0,0898657
28,0659	0,0897421
27,832	0,0896177
27,5981	0,0894923
27,411	0,0893655
27,2239	0,0892376
26,9432	0,0891092
26,7561	0,0889799
26,5222	0,0888494
26,3351	0,0887176
26,1012	0,088585
26,0077	0,0884513
25,7738	0,0883165
25,4932	0,0881805
25,3528	0,0880438
25,1657	0,0879064
24,9786	0,0877678
24,698	0,087628
24,5576	0,0874873
24,277	0,0873456
24,0431	0,0872027
23,9495	0,0870587
23,7157	0,086914
23,4818	0,086769
23,2947	0,0866236
23,014	0,0864769
22,8269	0,0863287
22,6398	0,0861798
22,4995	0,0860302
22,3124	0,0858791
22,0317	0,0857269
21,8446	0,0855741
21,6107	0,0854207
21,3301	0,0852664
21,1897	0,0851106
21,0962	0,0849537
20,7687	0,0847964
20,4881	0,0846384
20,3945	0,084479
20,2542	0,0843185
19,9268	0,0841573
19,6461	0,0839952
19,5993	0,083832
19,2719	0,0836675
18,9912	0,0835021
18,8977	0,083336
18,7573	0,0831688
18,3831	0,0830003
18,2428	0,0828311
18,1493	0,0826613
17,8218	0,0824907
17,4944	0,0823188
17,4008	0,0821457
17,0734	0,0819722
16,8395	0,0817981
16,6992	0,0816228
16,5589	0,0814464
16,325	0,0812691
16,0911	0,0810914
15,904	0,0809129
15,7169	0,080733
15,4362	0,0805519
15,1556	0,0803702
15,1556	0,0801881
14,8749	0,0800051
14,5475	0,0798207
14,4071	0,0796353
14,3136	0,0794495
13,8926	0,0792632
13,7523	0,0790759
13,5652	0,0788873
13,2845	0,0786977
13,0506	0,0785077
12,8635	0,078317
12,7232	0,0781251
12,349	0,0779317
12,2554	0,0777377
12,1151	0,0775432
11,7877	0,0773477
11,6006	0,0771508
11,2731	0,0769531
11,1796	0,0767549
10,8989	0,0765561
10,665	0,0763564
10,5247	0,0761553
10,2908	0,0759535
10,0102	0,0757512
9,86983	0,0755482
9,58917	0,0753442
9,40206	0,0751389
9,1214	0,0749327
8,9343	0,0747263
8,74719	0,0745195
8,51331	0,0743115
8,37298	0,0741022
8,1391	0,0738922
7,81166	0,0736818
7,76489	0,0734709
7,48423	0,0732589
7,20357	0,0730457
7,01646	0,0728315
6,87614	0,072617
6,59548	0,072402
6,31482	0,0721859
6,12771	0,0719687
5,94061	0,0717506
5,7535	0,0715319
5,47284	0,0713125
5,19218	0,0710925
5,09863	0,0708715
4,86475	0,0706496
4,53731	0,070427
4,30343	0,0702039
4,1631	0,06998
3,976	0,069755
3,69534	0,0695289
3,46146	0,0693022
3,32113	0,0690749
3,08724	0,0688468
2,85336	0,0686175
2,66626	0,0683871
2,47915	0,0681562
2,24527	0,067925
2,05816	0,0676934
1,82428	0,0674608
1,5904	0,0672269
1,40329	0,0669923
1,12263	0,0667573
0,888752	0,0665217
0,701646	0,0662854
0,561317	0,0660481
0,327435	0,0658097
0,0467764	0,0655708
-0,0935529	0,0653314
-0,327435	0,0650914
-0,514541	0,0648506
-0,888752	0,0646087
-0,935529	0,0643658
-1,16941	0,0641226
-1,45007	0,063879
-1,5904	0,0636347
-1,73073	0,0633895
-2,01139	0,0631432
-2,24527	0,0628961
-2,43237	0,0626488
-2,61948	0,0624012
-2,90014	0,062153
-2,99369	0,0619038
-3,27435	0,0616537
-3,46146	0,0614026
-3,69534	0,0611512
-3,83567	0,0608995
-4,11633	0,0606474
-4,30343	0,0603946
-4,44376	0,0601407
-4,7712	0,0598859
-4,9583	0,0596306
-5,14541	0,0593751
-5,28574	0,059119
-5,51962	0,0588619
-5,80028	0,0586038
-5,94061	0,0583448
-6,08094	0,0580853
-6,45515	0,0578256
-6,64225	0,0575655
-6,73581	0,0573044
-7,01646	0,0570422
-7,29712	0,0567791
-7,57778	0,0565156
-7,62456	0,0562517
-7,95199	0,0559872
-8,18588	0,0557218
-8,3262	0,0554555
-8,56009	0,0551884
-8,88752	0,0549208
-8,88752	0,054653
-9,16818	0,054385
-9,49562	0,0541166
-9,68272	0,0538473
-9,7295	0,0535771
-10,1037	0,0533059
-10,3376	0,0530342
-10,3844	0,0527622
-10,7118	0,05249
-10,9925	0,0522173
-11,1328	0,0519437
-11,1796	0,051669
-11,4602	0,0513936
-11,7409	0,0511178
-11,8344	0,0508419
-12,0215	0,0505658
-12,3958	0,0502894
-12,6296	0,0500123
-12,5361	0,0497342
-13,0038	0,049455
-13,1442	0,0491753
-13,2845	0,0488951
-13,4248	0,0486147
-13,799	0,0483337
-13,8458	0,048052
-13,9862	0,0477696
-14,22	0,0474863
-14,4539	0,0472025
-14,6878	0,0469182
-14,8281	0,0466338
-15,062	0,046349
-15,2959	0,0460636
-15,4362	0,0457777
-15,7169	0,045491
-15,904	0,0452035
-16,0911	0,0449155
-16,2782	0,0446273
-16,6056	0,0443389
-16,7927	0,0440502
-16,8863	0,0437609
-17,1202	0,043471
-17,3073	0,0431803
-17,5412	0,042889
-17,6815	0,0425972
-17,9621	0,042305
-18,0557	0,0420125
-18,2428	0,0417198
-18,4767	0,0414265
-18,6638	0,0411328
-18,8509	0,0408383
-19,0848	0,040543
-19,3654	0,040247
-19,5058	0,0399506
-19,5525	0,039654
-19,8332	0,0393573
-20,0671	0,0390604
-20,2074	0,0387629
-20,4413	0,0384648
-20,6752	0,038166
-20,8623	0,0378668
-20,9558	0,0375671
-21,2365	0,037267
-21,4704	0,0369664
-21,5639	0,0366657
-21,8914	0,0363649
-22,0785	0,036064
-22,172	0,0357626
-22,2188	0,0354606
-22,5462	0,0351579
-22,8269	0,0348543
-22,8269	0,0345503
-23,014	0,0342459
-23,3414	0,0339412
-23,3882	0,0336364
-23,6221	0,0333315
-23,8092	0,0330265
-24,0899	0,0327211
-24,277	0,0324151
-24,4641	0,0321084
-24,698	0,0318011
-24,7915	0,0314932
-25,0254	0,0311849
-25,2125	0,0308762
-25,306	0,0305675
-25,5867	0,0302586
-25,7738	0,0299496
-25,8206	0,0296406
-26,0077	0,0293315
-26,1948	0,0290221
-26,4287	0,0287124
-26,6158	0,0284024
-26,8029	0,0280918
-26,9432	0,0277806
-27,2239	0,0274688
-27,3174	0,0271566
-27,4578	0,0268441
-27,6916	0,0265314
-27,832	0,0262184
-28,0659	0,0259053
-28,1594	0,0255921
-28,3933	0,0252786
-28,5336	0,0249648
-28,7207	0,0246509
-28,9078	0,0243365
-29,0482	0,0240215
-29,2353	0,023706
-29,4692	0,0233899
-29,6563	0,0230736
-29,703	0,022757
-29,8901	0,0224403
-30,124	0,0221234
-30,4047	0,0218063
-30,3579	0,0214892
-30,545	0,021172
-30,9192	0,0208546
-31,0128	0,0205372
-31,0595	0,0202193
-31,2467	0,0199011
-31,6209	0,0195826
-31,5741	0,0192636
-31,8547	0,0189442
-32,0419	0,0186245
-32,1354	0,0183046
-32,1822	0,0179843
-32,5096	0,0176638
-32,6967	0,0173431
-32,8371	0,0170222
-33,0709	0,0167011
-33,2113	0,0163799
-33,3048	0,0160586
-33,3984	0,0157373
-33,5387	0,015416
-33,8194	0,0150945
-33,9129	0,0147729
-34,0532	0,0144514
-34,3339	0,0141298
-34,4742	0,0138081
-34,6613	0,0134863
-34,8017	0,0131643
-35,0355	0,0128418
-35,0355	0,0125191
-35,2227	0,0121961
-35,5033	0,0118727
-35,5969	0,0115494
-35,6904	0,0112258
-35,8775	0,0109019
-36,1582	0,0105779
-36,2517	0,0102536
-36,3453	0,0099292
-36,4856	0,00960481
-36,6727	0,00928029
-36,7195	0,00895564
-36,9534	0,00863086
-37,0469	0,00830595
-37,1873	0,00798104
-37,3276	0,00765601
-37,5615	0,00733084
-37,6083	0,00700568
-37,7954	0,00668052
-37,8889	0,00635522
-38,0292	0,0060298
-38,2163	0,00570438
-38,3567	0,00537896
-38,497	0,00505354
-38,6373	0,00472812
-38,6373	0,0044027
-38,8244	0,00407728
-39,0583	0,00375186
-39,1051	0,00342632
-39,2922	0,00310077
-39,4325	0,00277535
-39,6664	0,0024498
-39,6664	0,00212425
-39,76	0,0017987
-40,0874	0,00147303
-40,0874	0,00114735
-40,2745	0,000821675
-40,5084	0,000496127
-40,6487	0,000170578
-40,7423	-0,000155098
-40,8826	-0,000480646
-40,9762	-0,000806194
-41,1633	-0,00113187
-41,3504	-0,00145755
-41,4439	-0,00178335
-41,5375	-0,00210916
-41,631	-0,00243483
-41,7714	-0,00276051
-42,0052	-0,00308606
-42,052	-0,00341161
-42,1923	-0,00373728
-42,3794	-0,00406296
-42,473	-0,00438851
-42,6601	-0,00471393
-42,8472	-0,00503947
-42,9408	-0,00536515
-43,0343	-0,0056907
-43,1279	-0,00601612
-43,3618	-0,00634154
-43,4085	-0,00666696
-43,4553	-0,00699225
-43,736	-0,00731754
-43,9231	-0,00764296
-43,9231	-0,00796825
-44,0634	-0,00829342
-44,2505	-0,00861858
-44,2973	-0,00894375
-44,4844	-0,00926878
-44,6247	-0,00959369
-44,6715	-0,00991859
-44,7183	-0,0102435
-44,9521	-0,0105684
-45,0457	-0,0108933
-45,0457	-0,011218
-45,2328	-0,0115425
-45,4199	-0,011867
-45,5602	-0,0121913
-45,5602	-0,0125154
-45,7473	-0,0128393
-45,8877	-0,0131629
-45,9345	-0,0134863
-46,1216	-0,0138091
-46,1683	-0,0141317
-46,3087	-0,0144541
-46,3554	-0,0147762
-46,5893	-0,0150981
-46,7764	-0,01542
-46,7297	-0,0157418
-46,8232	-0,0160636
-47,1506	-0,0163852
-47,1974	-0,0167065
-47,1974	-0,0170278
-47,4313	-0,0173491
-47,5249	-0,0176703
-47,5716	-0,0179914
-47,712	-0,0183123
-47,8523	-0,0186331
-47,9926	-0,0189538
-48,0862	-0,0192741
-48,2265	-0,019594
-48,3668	-0,0199137
-48,3201	-0,0202329
-48,5072	-0,0205518
-48,6943	-0,0208703
-48,6943	-0,0211883
-48,8346	-0,021506
-48,9281	-0,0218235
-49,1153	-0,0221408
-49,2088	-0,0224583
-49,3024	-0,0227756
-49,3959	-0,0230929
-49,4427	-0,0234099
-49,6298	-0,0237269
-49,7701	-0,0240437
-49,8169	-0,0243602
-49,8637	-0,0246762
-49,9572	-0,0249918
-50,0508	-0,0253069
-50,1911	-0,0256216
-50,1911	-0,025936
-50,3314	-0,02625
-50,5185	-0,0265634
-50,5185	-0,0268766
-50,6121	-0,0271897
-50,7524	-0,0275027
-50,846	-0,0278156
-50,846	-0,0281282
-50,9863	-0,0284404
-51,1266	-0,0287522
-51,2202	-0,0290636
-51,267	-0,0293747
-51,4073	-0,0296853
-51,4541	-0,0299954
-51,5476	-0,0303051
-51,6412	-0,0306142
-51,8283	-0,0309232
-51,8751	-0,0312322
-51,8751	-0,0315411
-52,0622	-0,0318499
-52,1089	-0,0321585
-52,2493	-0,0324667
-52,296	-0,0327746
-52,3896	-0,0330819
-52,5299	-0,0333887
-52,5299	-0,0336949
-52,717	-0,0340005
-52,717	-0,0343058
-52,8106	-0,0346108
-52,9509	-0,0349156
-52,9977	-0,0352202
-53,0912	-0,0355246
-53,138	-0,0358286
-53,138	-0,0361324
-53,2316	-0,0364356
-53,3719	-0,0367381
-53,3719	-0,0370398
-53,559	-0,037341
-53,6993	-0,0376419
-53,6526	-0,0379426
-53,8397	-0,038243
-53,98	-0,0385432
-53,98	-0,0388431
-53,98	-0,0391425
-54,1671	-0,0394413
-54,1203	-0,0397396
-54,2607	-0,0400369
-54,3542	-0,0403339
-54,401	-0,0406307
-54,4945	-0,0409273
-54,4945	-0,0412236
-54,6349	-0,0415195
-54,6816	-0,0418151
-54,822	-0,04211
-54,8688	-0,042404
-55,0091	-0,0426974
-54,9623	-0,0429903
-54,9623	-0,0432829
-55,1026	-0,0435753
-55,243	-0,0438674
-55,243	-0,0441588
-55,2897	-0,0444496
-55,5704	-0,0447398
-55,4768	-0,045029
-55,4768	-0,0453177
-55,664	-0,0456062
-55,7575	-0,0458944
-55,7107	-0,0461822
-55,7575	-0,0464695
-55,8511	-0,0467559
-55,8043	-0,0470417
-55,8978	-0,0473269
-56,0849	-0,0476116
-56,0849	-0,047896
-56,0849	-0,04818
-56,1785	-0,0484639
-56,3656	-0,0487472
-56,2253	-0,0490295
-56,4592	-0,0493112
-56,4592	-0,0495921
-56,5527	-0,0498724
-56,5059	-0,0501523
-56,6463	-0,0504316
-56,7866	-0,0507099
-56,7398	-0,0509875
-56,7866	-0,0512645
-56,9269	-0,0515409
-56,9737	-0,051817
-56,9269	-0,0520928
-56,9737	-0,0523683
-57,2076	-0,0526431
-57,0205	-0,052917
-57,2076	-0,0531901
-57,3011	-0,0534625
-57,3479	-0,0537344
-57,2076	-0,0540061
-57,3947	-0,0542776
-57,535	-0,0545484
-57,4415	-0,0548181
-57,4415	-0,0550869
-57,6286	-0,0553551
-57,6753	-0,0556231
-57,5818	-0,0558907
-57,7689	-0,0561579
-57,9092	-0,0564245
-57,7689	-0,05669
-57,9092	-0,0569545
-57,956	-0,0572185
-57,956	-0,0574823
-57,956	-0,0577455
-58,0496	-0,0580079
-58,0963	-0,0582693
-58,1431	-0,0585299
-58,0963	-0,0587898
-58,1431	-0,0590494
-58,2367	-0,0593087
-58,1431	-0,0595674
-58,2834	-0,0598251
-58,4238	-0,0600817
-58,3302	-0,0603376
-58,377	-0,0605932
-58,5641	-0,0608482
-58,4705	-0,0611025
-58,4705	-0,0613557
-58,6109	-0,0616081
-58,6576	-0,0618599
-58,6576	-0,0621113
-58,7044	-0,0623624
-58,798	-0,0626127
-58,798	-0,0628619
-58,7512	-0,0631103
-58,7512	-0,063358
-58,9383	-0,0636054
-58,8447	-0,0638523
-58,8915	-0,0640986
-58,9851	-0,0643438
-58,9851	-0,0645878
-58,8915	-0,0648313
-58,9851	-0,0650744
-59,1254	-0,0653168
-58,9851	-0,0655585
-59,0319	-0,0657992
-59,1722	-0,066039
-59,1722	-0,0662784
-59,219	-0,0665173
-59,3125	-0,0667555
-59,3593	-0,0669926
-59,2657	-0,0672285
-59,3125	-0,0674638
-59,3125	-0,0676986
-59,4061	-0,0679327
-59,3125	-0,0681657
-59,4528	-0,0683975
-59,4528	-0,0686287
-59,4061	-0,0688596
-59,4528	-0,0690899
-59,4996	-0,0693192
-59,4528	-0,0695475
-59,4996	-0,0697751
-59,4996	-0,0700021
-59,5464	-0,0702285
-59,4996	-0,0704541
-59,4996	-0,0706783
-59,5464	-0,0709015
-59,4996	-0,0711243
-59,5464	-0,0713466
-59,5932	-0,0715679
-59,5464	-0,0717879
-59,5464	-0,0720072
-59,5932	-0,072226
-59,5932	-0,0724442
-59,5932	-0,0726614
-59,5932	-0,0728773
-59,5932	-0,0730922
-59,6867	-0,0733066
-59,6399	-0,0735205
-59,5932	-0,0737332
-59,6867	-0,0739448
-59,6399	-0,0741557
-59,5932	-0,0743662
-59,6399	-0,0745763
-59,8271	-0,0747857
-59,5932	-0,074994
-59,6867	-0,0752012
-59,8271	-0,0754078
-59,6867	-0,0756137
-59,7335	-0,0758187
-59,6399	-0,0760226
-59,8271	-0,0762255
-59,6867	-0,0764277
-59,7335	-0,0766292
-59,8271	-0,0768299
-59,7335	-0,0770294
-59,5932	-0,0772282
-59,6399	-0,0774263
-59,7335	-0,0776236
-59,7335	-0,0778198
-59,6399	-0,0780147
-59,6867	-0,0782088
-59,7335	-0,0784024
-59,5932	-0,078595
-59,6867	-0,0787863
-59,7335	-0,0789768
-59,6399	-0,0791665
-59,5932	-0,0793555
-59,6867	-0,0795434
-59,5932	-0,0797301
-59,5932	-0,079916
-59,6399	-0,0801015
-59,7335	-0,0802862
-59,5932	-0,0804693
-59,5932	-0,0806514
-59,5932	-0,0808329
-59,6399	-0,081014
-59,4996	-0,0811939
-59,5464	-0,0813725
-59,6399	-0,0815503
-59,5464	-0,0817276
-59,5464	-0,081904
-59,5464	-0,0820791
-59,5932	-0,0822531
-59,4996	-0,0824266
-59,4528	-0,0825997
-59,5464	-0,0827719
-59,4996	-0,0829427
-59,4528	-0,0831125
-59,4061	-0,0832818
-59,4061	-0,0834501
-59,4528	-0,0836172
-59,4996	-0,0837831
-59,3125	-0,0839483
-59,3593	-0,0841125
-59,4061	-0,0842754
-59,3593	-0,0844371
-59,2657	-0,0845983
-59,219	-0,0847587
-59,1722	-0,0849178
-59,219	-0,0850756
-59,0786	-0,0852327
-59,1254	-0,0853892
-59,0786	-0,0855442
-59,1254	-0,0856979
-58,8915	-0,085851
-58,9383	-0,0860036
-59,0319	-0,0861553
-58,9383	-0,0863056
-58,8915	-0,0864548
-58,8915	-0,0866036
-58,9383	-0,0867513
-58,7512	-0,0868975
-58,7512	-0,0870426
-58,798	-0,0871874
-58,7044	-0,0873317
-58,7512	-0,0874748
-58,6576	-0,0876166
-58,5641	-0,0877575
-58,5173	-0,0878978
-58,5641	-0,0880368
-58,5173	-0,0881742
-58,4238	-0,0883109
-58,377	-0,0884471
-58,4238	-0,0885821
-58,3302	-0,0887158
-58,2367	-0,0888485
-58,1899	-0,0889804
-58,2834	-0,0891111
-58,1431	-0,0892403
-58,0963	-0,0893688
-58,0496	-0,0894965
-58,0496	-0,089623
-57,956	-0,0897481
-58,0028	-0,0898725
-57,956	-0,0899963
-57,8624	-0,0901185
-57,8157	-0,0902392
-57,8624	-0,0903595
-57,6286	-0,0904792
-57,535	-0,0905974
-57,5818	-0,0907142
-57,5818	-0,0908304
-57,3947	-0,0909461
-57,4415	-0,0910604
-57,4415	-0,0911733
-57,3011	-0,0912855
-57,2544	-0,0913969
-57,2544	-0,0915069
-57,2076	-0,0916156
-57,114	-0,0917234
-57,0205	-0,0918307
-57,0672	-0,0919369
-56,8801	-0,0920417
-56,8801	-0,0921454
-56,7866	-0,0922485
-56,8334	-0,0923507
-56,6463	-0,0924515
-56,5995	-0,0925514
-56,6463	-0,0926507
-56,3656	-0,0927489
-56,3656	-0,0928457
-56,3188	-0,0929412
-56,3656	-0,0930359
-56,1317	-0,0931292
-56,0849	-0,0932213
-56,1785	-0,0933126
-55,8978	-0,0934031
-55,8511	-0,0934923
-55,8978	-0,0935801
-55,8511	-0,0936673
-55,664	-0,0937536
-55,7107	-0,0938385
-55,7107	-0,0939221
-55,5236	-0,094005
-55,4768	-0,0940869
-55,3833	-0,0941674
-55,1962	-0,0942468
-55,1026	-0,0943256
-55,1026	-0,0944033
-55,1026	-0,0944797
-54,9623	-0,0945552
-54,9155	-0,0946301
-54,8688	-0,0947039
-54,7752	-0,0947759
-54,5413	-0,094847
-54,5881	-0,0949175
-54,4478	-0,094987
-54,3074	-0,095055
-54,3074	-0,0951219
-54,3074	-0,0951884
-54,3074	-0,0952536
-54,0736	-0,0953175
-53,98	-0,0953803
-53,98	-0,0954422
-53,7461	-0,0955027
-53,6058	-0,0955619
-53,6058	-0,0956204
-53,6526	-0,0956783
-53,3251	-0,0957347
-53,3251	-0,0957897
-53,2784	-0,0958441
-53,1848	-0,0958976
-52,9509	-0,0959495
-52,8574	-0,0960003
-52,9509	-0,0960506
-52,8106	-0,0961
-52,717	-0,0961478
-52,6703	-0,0961945
-52,5767	-0,0962404
-52,3428	-0,096285
-52,3428	-0,0963283
-52,296	-0,0963706
-52,0622	-0,0964124
-52,0154	-0,0964529
-52,0154	-0,0964919
-51,8283	-0,09653
-51,5944	-0,0965667
-51,5009	-0,0966017
-51,5476	-0,0966359
-51,3137	-0,0966695
-51,267	-0,096702
-51,1734	-0,0967333
-51,0331	-0,0967636
-50,7524	-0,096793
-50,7992	-0,0968212
-50,7524	-0,0968479
-50,5185	-0,0968737
-50,5653	-0,0968987
-50,4718	-0,0969222
-50,425	-0,0969444
-50,0976	-0,0969659
-50,0508	-0,0969866
-50,004	-0,0970059
-49,7701	-0,0970239
-49,7701	-0,0970415
-49,6298	-0,0970583
-49,4427	-0,0970737
-49,3024	-0,0970879
-49,2556	-0,0971012
-49,162	-0,0971138
-48,9281	-0,0971251
-48,8346	-0,0971351
-48,741	-0,0971442
-48,6007	-0,0971525
-48,3668	-0,0971594
-48,3668	-0,0971652
-48,3201	-0,0971699
-48,0394	-0,0971733
-48,0862	-0,0971754
-47,9926	-0,0971765
-47,7587	-0,0971768
-47,6184	-0,0971761
-47,5249	-0,0971741
-47,3845	-0,0971713
-47,2442	-0,0971679
-47,1039	-0,0971634
